#   1 XWIN_IMAGE             Windowed position estimate along x                         [pixel]
#   2 YWIN_IMAGE             Windowed position estimate along y                         [pixel]
#   3 ERRAWIN_IMAGE          RMS windowed pos error along major axis                    [pixel]
#   4 ERRBWIN_IMAGE          RMS windowed pos error along minor axis                    [pixel]
#   5 ERRTHETAWIN_IMAGE      Windowed error ellipse pos angle (CCW/x)                   [deg]
#   6 FLUX_AUTO              Flux within a Kron-like elliptical aperture                [count]
#   7 FLUXERR_AUTO           RMS error for AUTO flux                                    [count]
#   8 CLASS_STAR             S/G classifier output                                     
   184.4956    116.9780   0.04206   0.03996 -81.66         2963     118.8118  0.989
   286.8122    889.9119   0.01469   0.01139  -4.98        44933     214.0727  1.000
   277.0404    887.7013   0.01048   0.00940  39.52        68829     257.9878  1.000
   290.4522    884.1159   0.01568   0.01160 -73.63        32892     182.4635  1.000
   282.5970    879.8246   0.01553   0.01436 -16.25       169692     450.1651  0.626
   448.8836    862.4800   0.01200   0.01094  84.17       428596     682.4852  0.234
   440.9330    865.0470   0.01008   0.00883  75.83       219410     438.8773  1.000
   434.9712    841.1091   0.00740   0.00561 -47.21       591206     672.3524  0.998
   424.4640    839.7949   0.00515   0.00467  55.55       372333     495.6839  1.000
   541.1644    875.6114   0.09606   0.06416  48.79        19766     352.4619  1.000
   430.3834    831.8497   0.00624   0.00569  -5.39       570696     617.8516  1.000
   712.8774    831.0187   0.16540   0.16477 -86.77        27682     440.3996  0.982
   713.3219    836.8845   0.06491   0.04780 -72.13        14107     279.3495  1.000
   711.7672    831.8806   0.17177   0.17109 -11.81        26309     415.1573  0.982
   565.9551    829.8534   0.05111   0.03484  58.45        31271      415.945  0.863
   571.8946    828.3777   0.14786   0.14407 -70.46        11691     256.2722  0.981
   577.1515    830.8208   0.06803   0.03312 -61.31        23674     367.9924  0.982
   571.5479    820.6516   0.16858   0.16837 -63.37        77540     699.9418  0.122
   145.2422    832.0634   0.15011   0.14858 -55.07         3203     197.5599  1.000
   141.6160    819.7093   0.08067   0.04278 -47.17         7361      227.994  0.996
   430.2905    814.4479   0.10189   0.10054  67.31         2649     173.9496  0.986
   422.8998    815.5849   0.12158   0.07756  56.78        41000     610.4744  1.000
   386.8596    788.5577   0.10463   0.04780  35.33        63455     612.6706  0.766
   391.7639    780.9136   0.08258   0.05524  -9.85        95736     768.4343  0.126
   401.2709    784.1699   0.12897   0.02970 -72.36        30874     401.7289  0.982
   506.8734    787.2890   0.10382   0.04858  76.95        34390      435.868  1.000
   513.2492    783.0964   0.15593   0.15525  -6.07        59563     577.5176  1.000
   591.3260    783.0447   0.05810   0.03478  20.60        65247     599.1849  0.501
   598.9714    774.2525   0.04996   0.03569  22.66       110722     784.1232  0.121
   640.3287    776.2767   0.13693   0.13524  67.19        17251     295.2834  1.000
   633.8111    780.1642   0.06852   0.04655  57.45        29212     401.4519  0.994
   637.5221    775.0999   0.16541   0.16513  45.47        62090     616.4644  0.832
   598.7031    785.4550   0.07586   0.03087 -16.38        71301     636.2164  0.192
   591.9924    775.9644   0.09177   0.08882 -74.41         6793     202.6881  1.000
   302.0358    759.3855   0.08737   0.05089  59.39        62155     671.0796  0.288
   312.6577    761.1919   0.07286   0.04888 -34.50        18528     329.5071  1.000
   314.5924    754.6330   0.17539   0.17452 -38.92        74377     708.6009  0.959
   208.9464    718.8941   0.06166   0.05948  11.18        37482     373.3956  0.126
   210.6844    729.9661   0.05686   0.05351 -18.69        25624     351.7455  0.988
   201.6941    727.4215   0.03892   0.03747  45.86        23074     304.7397  0.982
   616.5679    727.9681   0.11511   0.11239 -80.06        13493     270.4568  1.000
   623.2780    724.0973   0.06894   0.01984 -72.01        26236     398.2698  0.856
   611.1087    724.6470   0.07798   0.07684  53.24        23178     348.5098  0.946
   615.9928    717.6607   0.10192   0.10089 -35.35        37957     503.4883  0.390
    82.7805    724.1715   0.11692   0.11382   8.96         1426     82.36683  0.959
   197.8518    657.2109   0.08802   0.08643  -4.25        13913     261.0547  0.588
   203.2936    665.0333   0.10781   0.10392 -53.22         9730     271.0155  0.948
   196.6365    667.9670   0.06082   0.02605  81.47         8157     233.4956  0.986
   191.6169    665.5277   0.06164   0.06049  53.49        11203     236.2143  0.982
   854.3417    635.3703   0.01877   0.01791  11.00        95902     428.9907  0.644
   849.0297    643.1281   0.01382   0.01231  33.51        59078     278.5139  0.989
   861.5760    640.4634   0.01432   0.01214 -77.71        14419     125.4699  0.979
   854.7598    645.8355   0.01460   0.01262  37.84        33861     198.3619  0.999
   859.3571    645.4927   0.01310   0.01280 -51.15        13628     120.4616  1.000
   452.3511    642.6513   0.11759   0.03211 -71.67        26014     427.3606  0.981
   445.0424    642.5523   0.19475   0.19408  78.55        48676      624.181  0.696
   933.3112    630.0381   0.19570   0.19049  69.53         5077     214.2124  1.000
   260.4082    623.6147   0.04210   0.03755 -57.42        52046     377.3068  0.197
   249.3941    623.5313   0.02590   0.02504  66.58        36486     272.6214  0.829
   255.2886    616.4561   0.03546   0.03112  26.75        27512     247.2234  0.983
   256.4586    612.0005   0.03274   0.03170 -76.48        16266     214.6352  1.000
   180.4987    619.7574   0.11141   0.10872 -54.13         4006     181.9138  0.976
   731.0499    604.0026   0.11912   0.11741  36.08        11153     286.9706  0.983
   739.9511    607.2933   0.06792   0.04039 -39.75         8052     240.2633  0.977
   734.7847    601.4641   0.13322   0.13198  69.45        10378     242.4615  0.956
   768.8107    559.8275   0.10911   0.10598  15.34        11235     267.6422  0.983
   768.8641    556.1801   0.09623   0.09578 -14.97         9049     270.6549  0.988
   763.5877    565.5671   0.07164   0.06993  31.18        10756     265.9472  0.983
   775.3334    562.5436   0.11380   0.11054  89.39         6847     231.3106  0.985
   773.8192    568.4627   0.07736   0.07566 -59.36         6142     189.3346  0.992
   769.5240    568.5037   0.08490   0.08230  78.29         6859     194.9841  0.981
   625.5501    551.5695   0.07625   0.05735  12.09        10514     272.9731  1.000
   266.8700    541.2800   0.07268   0.04700  56.81         7863     260.5776  1.000
   127.7238    523.4161   0.02808   0.02711  -1.22         8456     222.0273  0.977
   135.0701    532.8618   0.03567   0.03281 -72.26         5625     110.7059  0.983
   135.6307    526.6173   0.03166   0.02916  28.96         9460     161.2935  0.993
   119.4595    532.8877   0.02243   0.02061  86.83         9486     146.5032  0.985
   741.0091    520.9811   0.06552   0.06265  31.02        13871     273.5206  0.981
   745.5543    514.0437   0.08503   0.08401   9.17        14886     273.6028  0.247
   753.4541    517.3664   0.08332   0.07937  80.02         3916     148.1762  0.978
   751.4469    524.0168   0.07721   0.07431 -67.22         5712      178.066  0.983
   747.3962    524.1701   0.05947   0.05748  76.94         4180     152.4357  0.978
   906.0698    436.7455   0.10212   0.09923 -28.33         2448     110.5189  0.974
   899.8637    428.1178   0.11744   0.11572   9.46         4671     186.4061  0.981
   896.3342    434.2822   0.09760   0.09470  33.18         5290     192.4316  0.981
   653.9982    370.9777   0.00946   0.00909  29.12       220153     431.6461  0.982
   660.9580    378.0568   0.01167   0.00825 -70.57       130659     339.4764  1.000
   654.9740    379.9593   0.00746   0.00735   7.74        71243     227.6991  1.000
   648.9223    377.0129   0.00755   0.00670  38.26       169337     370.6682  0.993
   866.0167    375.1732   0.00888   0.00789  43.01       119075     321.8739  0.997
   870.7689    369.8045   0.01135   0.01053  31.89       170048     381.5714  1.000
   877.3734    377.0186   0.01138   0.00804 -72.66        84424     271.6379  1.000
   872.0644    378.4337   0.00842   0.00829 -11.54        62664     223.1093  0.999
   631.5577    362.9328   0.07324   0.04197  55.16         6483     218.1866  0.996
   635.9105    361.6768   0.17109   0.16844 -68.20         6504     227.0027  1.000
   625.0574    359.5907   0.10182   0.09990  26.31         5162     214.3168  0.982
   432.8717    341.2759   0.06158   0.05873   4.28        12814     231.4016  0.983
   431.9878    337.5172   0.07940   0.07531 -13.25         6888     182.0489  0.983
   426.0101    346.9880   0.03818   0.03609  46.17        18271     236.1493  0.916
   438.9098    347.6508   0.06727   0.06131 -66.72        12560     196.8153  0.976
   431.9940    350.6048   0.04274   0.04159  28.00         9610     190.7047  0.996
   802.8717    334.1317   0.15800   0.15567 -85.78         6818     283.2553  0.971
   805.8987    338.1244   0.13139   0.12750  -9.69         4515     206.1376  0.999
   799.5058    336.2256   0.12820   0.12448  31.60         6232     235.1614  0.982
   678.2104    324.6737   0.12620   0.12439  44.75         2201     122.5552  0.991
   707.0418    278.8536   0.01402   0.01228  43.77        65699     273.6017  1.000
   712.3663    272.4753   0.01432   0.01276  15.86       110715     355.8081  0.868
   718.5838    280.6664   0.01273   0.01098 -67.77        52175     227.1467  1.000
   713.4844    281.4474   0.01156   0.01086  76.20        22346     141.1198  1.000
   698.0364    234.4409   0.00998   0.00876  84.06       167177     395.3685  0.998
   704.3258    230.0448   0.00967   0.00884  22.01        86598     270.1379  0.984
   710.1229    237.0879   0.01167   0.00888 -75.01        90914       284.81  1.000
   704.8708    239.0352   0.00934   0.00911  14.17        56530     219.4996  1.000
   608.5565    232.2388   0.08908   0.08738   0.78         4262     171.6877  0.998
   613.3740    231.0289   0.06907   0.06587 -74.67         3501     140.6445  0.981
   614.9644    226.5965   0.07945   0.07480 -81.97         2116     102.8204  0.971
   607.3309    222.7750   0.09775   0.09537  18.26         6263      194.178  0.983
   601.4828    228.1497   0.07200   0.07028  59.23         6455      175.482  0.983
   176.3110    114.8598   0.04742   0.04533  10.25         2753     120.3949  0.983
   170.2091    119.8824   0.03358   0.03160  54.68        10464     177.3027  0.991
   175.8963    123.6227   0.04365   0.04231  62.42         5929     144.5534  0.983
   181.7443    123.3077   0.04757   0.04586 -42.59         6316     135.9786  0.983
